# PDF#24-0734: QM=Star(+); d=Diffractometer; I=Diffractometer
# Hausmannite, syn
# Mn3 O4	(Brownish black)
# Radiation=CuKa1	Lambda=1.54056	Filter=
# Calibration=Internal(W)	d-Cutoff=	I/Ic(RIR)=1.50
# Ref= Natl. Bur. Stand. (U.S.) Monogr. 25, 10 38 (1972)

# Tetragonal - Powder Diffraction,  I41/amd (141)	Z=4	mp=
# Cell=5.7621x9.4696	Pearson=tI28 (Mn3 O4)
# Density(c)=4.834	Density(m)=4.840	Mwt=228.81	Vol=314.41	F(30)=96.3(.0092,34)
# Ref= Ibid.

# Strong Line: 2.49/X 2.77/9 1.54/5 3.09/4 4.92/3 1.80/3 1.58/3 2.46/2 2.37/2 2.04/2
# NOTE:  Pattern reviewed by Martin, K., McCarthy, G., North Dakota State Univ, Fargo, North Dakota, USA, ICDD Grant-in-Aid (1990).
# Agrees well with experimental and calculated patterns.
# Additional weak reflections [indicated by brackets] were observed.
# Optical data on specimen from Plumas Co., California, USA.
# The sample was prepared by heating Mn O2 from J.T.
# Baker Chemical Co., Phillipsburg, New Jersey, USA, to 1000 C for 3 days.
# Optical data on specimen from Plumas County, California, USA.
# Pattern taken at 25 C.
# To replace 00-016-0154 and 00-018-0791.
# Opaque mineral optical data on specimen from Thuringia, East Germany:  R3R%=19.6-17.6, Disp.=Std.
# VHN100=536-566.
# See ICSD 68174 (PDF 01-080-0382).

# d(A)     I(f)   I(v)  h  k   l  n^2  2-Theta   Theta  1/(2d)   2pi/d  
 4.924   30.0   15.0  1  0   1        18.000   9.000  0.1015  1.2760
 3.089   40.0   32.0  1  1   2        28.880  14.440  0.1619  2.0341
 2.881   17.0   15.0  2  0   0        31.015  15.508  0.1736  2.1809
 2.768   85.0   76.0  1  0   3        32.315  16.158  0.1806  2.2699
 2.487  100.0  100.0  2  1   1        36.085  18.043  0.2010  2.5264
 2.463   20.0   20.0  2  0   2        36.449  18.224  0.2030  2.5510
 2.367   20.0   21.0  0  0   4        37.983  18.991  0.2112  2.6545
 2.036   20.0   24.0  2  2   0        44.440  22.220  0.2455  3.0847
 1.996    1.0    1.0  2  1   3        45.396  22.698  0.2505  3.1476
 1.828    7.0   10.0  2  0   4        49.820  24.910  0.2734  3.4357
 1.798   25.0   35.0  1  0   5        50.709  25.355  0.2780  3.4930
 1.700   10.0   15.0  3  1   2        53.859  26.929  0.2940  3.6943
 1.640    8.0   12.0  3  0   3        56.009  28.004  0.3048  3.8300
 1.576   25.0   39.0  3  2   1        58.510  29.255  0.3172  3.9863
 1.544   50.0   81.0  2  2   4        59.840  29.920  0.3238  4.0686
 1.526    2.0    3.0  2  1   5        60.632  30.316  0.3277  4.1174
 1.472    3.0    5.0  1  1   6        63.101  31.551  0.3397  4.2682
 1.440   20.0   35.0  4  0   0        64.651  32.326  0.3471  4.3618
 1.426    3.0    5.0  3  2   3        65.390  32.695  0.3506  4.4062
 1.384    4.0    7.0  2  0   6        67.631  33.816  0.3612  4.5395
 1.382    2.0    4.0  4  1   1        67.731  33.865  0.3617  4.5455
 1.348    6.0   11.0  3  0   5        69.658  34.829  0.3707  4.6587
 1.305    1.0    2.0  3  3   2        72.318  36.159  0.3830  4.8129
 1.288    2.0    4.0  4  2   0        73.433  36.717  0.3881  4.8767
 1.277   10.0   19.0  4  1   3        74.151  37.075  0.3913  4.9176
 1.243    6.0   12.0  4  2   2        76.580  38.290  0.4022  5.0544
 1.230    5.0   10.0  4  0   4        77.510  38.755  0.4063  5.1062
 1.221    1.0    2.0  3  2   5        78.212  39.106  0.4094  5.1451
 1.197    5.0   10.0  2  1   7        80.044  40.022  0.4174  5.2456
 1.193    4.0    8.0  3  1   6        80.391  40.195  0.4189  5.2645
 1.183    4.0    8.0  0  0   8        81.203  40.602  0.4224  5.3085
 1.143    2.0    4.0  4  3   1        84.657  42.329  0.4371  5.4928
 1.131    4.0    9.0  4  2   4        85.797  42.898  0.4419  5.5525
 1.124    8.0   18.0  4  1   5        86.471  43.235  0.4446  5.5875
 1.099    2.0    5.0  5  1   2        88.966  44.483  0.4548  5.7156
 1.094    1.0    2.0  2  0   8        89.420  44.710  0.4567  5.7386
 1.082    8.0   18.0  4  3   3        90.716  45.358  0.4619  5.8038
 1.063    3.0    7.0  5  2   1        92.853  46.427  0.4703  5.9097
 1.032    5.0   12.0  3  2   7        96.496  48.248  0.4843  6.0854
 1.023    3.0    7.0  2  2   8        97.631  48.816  0.4885  6.1389
 1.018    6.0   15.0  4  4   0        98.276  49.138  0.4909  6.1691
 0.998    1.0    2.0  4  2   6       101.022  50.511  0.5010  6.2951
 0.984    5.0   13.0  4  3   5       102.963  51.482  0.5079  6.3821
 0.974    5.0   13.0  2  1   9       104.483  52.241  0.5132  6.4489
 0.967    2.0    5.0  5  3   2       105.545  52.772  0.5168  6.4949
 0.942    3.0    8.0  6  1   1       109.625  54.813  0.5305  6.6665
 0.935    2.0    5.0  4  4   4       110.815  55.408  0.5344  6.7150
 0.922    2.0    5.0  1  1  10       113.287  56.643  0.5422  6.8133
 0.918    2.0    5.0  5  1   6       113.914  56.957  0.5441  6.8377
 0.914    6.0   16.0  4  0   8       114.747  57.374  0.5467  6.8699
