# PDF#41-1379: QM=Star(+); d=Diffractometer; I=Diffractometer
# Manganite
# Mn +3 O ( O H )	(Gray-black)
# Radiation=CuKa1	Lambda=1.54059	Filter=
# Calibration=	d-Cutoff=	I/Ic(RIR)=
# Ref= Post, J., Smithsonian Institution, Washington, D.C., USA.
# ICDD Grant-in-Aid (1988)
# Monoclinic - Powder Diffraction,  P21/c (14)	Z=4	mp=
# Cell=5.3x5.278x5.307<114.36>	Pearson=mP16 (Fe S2)
# Density(c)=4.320	Density(m)=4.330	Mwt=87.94	Vol=135.24	F(30)=29.0(.0146,71)
# Ref= Dachs, H.
# Z. Kristallogr., Kristallgeom., Kristallphys., Kristallchem., 118 303 (1963)
# Strong Line: 3.41/X 2.64/2 1.78/2 2.42/2 1.67/2 2.41/2 2.52/1 2.27/1 1.70/1 1.50/1
# NOTE:  Specimen from Harz Mountains, Germany (Smithsonian, Washington 157872).
# To replace 00-008-0099 and 00-018-0805.
# Preferred orientation enhances 0k0 reflections.
# See ICSD 26754 (PDF 01-074-1049); ICSD 27456 (PDF 01-074-1631); ICSD 27457 (PF 01-074-1632); See ICSD 27789 (PDF 01-074-1842).

# d(A)     I(f)   I(v)  h   k   l  n^2  2-Theta   Theta  1/(2d)   2pi/d  
 4.830    1.0    1.0  1   0   0        18.353   9.177  0.1035  1.3009
 3.563    1.0    1.0  1   1   0        24.971  12.485  0.1403  1.7635
 3.563    1.0    1.0  0   1   1        24.971  12.485  0.1403  1.7635
 3.405  100.0  100.0  1   1  -1        26.149  13.075  0.1468  1.8453
 2.639   24.0   31.0  0   2   0        33.941  16.971  0.1895  2.3809
 2.524   12.0   16.0  1   1   1        35.538  17.769  0.1981  2.4894
 2.417   17.0   24.0  0   0   2        37.168  18.584  0.2069  2.5996
 2.414   16.0   23.0  2   0   0        37.216  18.608  0.2071  2.6028
 2.316    1.0    1.0  1   2   0        38.852  19.426  0.2159  2.7129
 2.271   10.0   15.0  1   2  -1        39.654  19.827  0.2202  2.7667
 2.228    2.0    3.0  2   0  -2        40.452  20.226  0.2244  2.8201
 2.196    9.0   14.0  2   1   0        41.068  20.534  0.2277  2.8612
 2.196    9.0   14.0  0   1   2        41.068  20.534  0.2277  2.8612
 1.874    1.0    2.0  1   0   2        48.540  24.270  0.2668  3.3528
 1.866    1.0    2.0  2   2  -1        48.761  24.381  0.2680  3.3672
 1.782   21.0   40.0  2   2   0        51.222  25.611  0.2806  3.5259
 1.782   21.0   40.0  0   2   2        51.222  25.611  0.2806  3.5259
 1.765    1.0    2.0  2   1   1        51.751  25.876  0.2833  3.5599
 1.703   10.0   20.0  2   2  -2        53.784  26.892  0.2936  3.6895
 1.672   17.0   35.0  1   1  -3        54.864  27.432  0.2990  3.7579
 1.670   16.0   33.0  3   1  -1        54.935  27.468  0.2994  3.7624
 1.653    1.0    2.0  0   3   1        55.549  27.774  0.3025  3.8011
 1.636    9.0   19.0  1   3  -1        56.177  28.088  0.3056  3.8406
 1.620    1.0    2.0  3   1  -2        56.781  28.391  0.3086  3.8785
 1.500   10.0   23.0  1   3   1        61.797  30.899  0.3333  4.1888
 1.437    5.0   12.0  2   0   2        64.828  32.414  0.3479  4.3724
 1.430    5.0   12.0  3   1  -3        65.185  32.592  0.3497  4.3938
 1.422    1.0    2.0  2   3   0        65.597  32.799  0.3516  4.4186
 1.422    1.0    2.0  0   3   2        65.597  32.799  0.3516  4.4186
 1.374    1.0    2.0  3   2   0        68.196  34.098  0.3639  4.5729
 1.324    9.0   23.0  3   1   1        71.152  35.576  0.3776  4.7456
 1.324    9.0   23.0  1   1   3        71.152  35.576  0.3776  4.7456
 1.319    5.0   13.0  4   0  -2        71.463  35.732  0.3791  4.7636
 1.319    5.0   13.0  2   0  -4        71.463  35.732  0.3791  4.7636
 1.294    1.0    3.0  3  -2  -3        73.064  36.532  0.3864  4.8556
 1.262    4.0   11.0  2   2   2        75.232  37.616  0.3962  4.9788
 1.244    3.0    8.0  1  -3  -3        76.515  38.257  0.4019  5.0508
 1.244    3.0    8.0  3  -3  -1        76.515  38.257  0.4019  5.0508
 1.214    1.0    3.0  3   2   1        78.765  39.383  0.4119  5.1756
 1.214    1.0    3.0  1   2   3        78.765  39.383  0.4119  5.1756
 1.207    1.0    3.0  4   0   0        79.312  39.656  0.4143  5.2056
 1.207    1.0    3.0  0   0   4        79.312  39.656  0.4143  5.2056
 1.180    6.0   17.0  4  -2  -2        81.503  40.752  0.4237  5.3247
 1.180    6.0   17.0  2  -2  -4        81.503  40.752  0.4237  5.3247
 1.158    5.0   15.0  0   4   2        83.392  41.696  0.4318  5.4259
 1.158    5.0   15.0  2   4   0        83.392  41.696  0.4318  5.4259
 1.135    7.0   21.0  3  -3  -3        85.478  42.739  0.4405  5.5358
 1.135    7.0   21.0  2  -4  -2        85.478  42.739  0.4405  5.5358
 1.114    2.0    6.0  4   0  -4        87.491  43.745  0.4488  5.6402
 1.098    4.0   12.0  4   2   0        89.100  44.550  0.4554  5.7224
 1.098    4.0   12.0  0   2   4        89.100  44.550  0.4554  5.7224
 1.079    4.0   13.0  1   3   3        91.103  45.552  0.4634  5.8232
 1.079    4.0   13.0  3   3   1        91.103  45.552  0.4634  5.8232
 1.027    2.0    7.0  1  -5  -1        97.186  48.593  0.4869  6.1180
 1.026    2.0    7.0  4  -2  -4        97.313  48.656  0.4873  6.1240
 1.019    2.0    7.0  5  -1  -3        98.211  49.106  0.4907  6.1660
 1.019    2.0    7.0  3  -1  -5        98.211  49.106  0.4907  6.1660
 1.013    3.0   10.0  5  -1  -1        98.998  49.499  0.4936  6.2026
 1.013    3.0   10.0  1  -1  -5        98.998  49.499  0.4936  6.2026
